SpectraSuite Data File
++++++++++++++++++++++++++++++++++++
Date: Tue Jul 11 16:37:00 GMT-03:00 2006
User: Alunos
Dark Spectrum Present: Yes
Reference Spectrum Present: Yes
Number of Sampled Component Spectra: 1
Spectrometers: USB4A00428
Integration Time (usec): 21000 (USB4A00428)
Spectra Averaged: 10 (USB4A00428)
Boxcar Smoothing: 0 (USB4A00428)
Correct for Electrical Dark: No (USB4A00428)
Strobe/Lamp Enabled: Yes (USB4A00428)
Correct for Detector Non-linearity: No (USB4A00428)
Correct for Stray Light: No (USB4A00428)
Number of Pixels in Processed Spectrum: 3648
>>>>>Begin Processed Spectral Data<<<<<
178.65	0.000
178.86	0.000
179.08	0.000
179.30	450.000
179.51	2250.000
179.73	-57.895
179.94	3200.000
180.16	-67.273
180.38	4.444
180.59	-366.667
180.81	205.263
181.02	175.641
181.24	10.638
181.46	34.722
181.67	77.236
181.89	33.913
182.10	50.000
182.32	445.455
182.54	86.400
182.75	352.632
182.97	-46.400
183.18	-0.488
183.40	-25.532
183.62	8.621
183.83	66.361
184.05	31.818
184.26	24.590
184.48	46.341
184.70	31.844
184.91	9.596
185.13	0.995
185.34	10.152
185.56	40.566
185.77	41.494
185.99	52.800
186.21	-44.915
186.42	22.449
186.64	-79.137
186.85	-12.552
187.07	22.327
187.29	58.125
187.50	20.109
187.72	-2.740
187.93	-39.216
188.15	-98.925
188.36	-7.345
188.58	-40.777
188.80	383.333
189.01	5.914
189.23	43.094
189.44	-23.381
189.66	0.000
189.87	1.987
190.09	73.239
190.30	-22.613
190.52	76.355
190.74	22.034
190.95	25.446
191.17	-107.874
191.38	-29.577
191.60	44.601
191.81	-29.461
192.03	23.585
192.24	-13.651
192.46	16.578
192.68	9.402
192.89	-16.568
193.11	29.412
193.32	7.083
193.54	-2.899
193.75	56.593
193.97	10.185
194.18	19.156
194.40	9.000
194.61	35.192
194.83	-2.991
195.04	-84.524
195.26	75.385
195.48	36.594
195.69	38.931
195.91	-4.082
196.12	1.984
196.34	-60.284
196.55	-43.558
196.77	-9.598
196.98	-9.790
197.20	-22.460
197.41	-1.389
197.63	-4.938
197.84	47.561
198.06	26.866
198.27	-24.913
198.49	9.967
198.70	-16.604
198.92	13.971
199.13	0.457
199.35	26.794
199.56	51.271
199.78	10.084
199.99	11.224
200.21	12.500
200.43	-13.603
200.64	-12.671
200.86	21.452
201.07	-10.067
201.29	-22.222
201.50	-36.859
201.72	27.626
201.93	22.444
202.15	10.932
202.36	-24.380
202.58	21.198
202.79	-18.685
203.01	37.358
203.22	27.111
203.44	-1.229
203.65	-23.052
203.87	23.836
204.08	23.450
204.29	-21.941
204.51	1.460
204.72	-2.128
204.94	-31.250
205.15	-10.849
205.37	-7.803
205.58	-52.416
205.80	10.169
206.01	1.377
206.23	-11.045
206.44	24.619
206.66	-47.500
206.87	-3.234
207.09	27.340
207.30	28.365
207.52	-21.450
207.73	-5.962
207.95	-6.278
208.16	-7.595
208.38	2.041
208.59	3.359
208.81	14.161
209.02	-24.709
209.23	2.316
209.45	11.454
209.66	5.818
209.88	-24.000
210.09	-23.371
210.31	5.411
210.52	-4.275
210.74	32.938
210.95	-2.564
211.17	31.634
211.38	13.778
211.60	-26.882
211.81	-4.159
212.02	-13.000
212.24	-7.598
212.45	27.778
212.67	25.231
212.88	25.354
213.10	20.945
213.31	-5.395
213.53	-18.029
213.74	-13.854
213.95	-21.698
214.17	-2.796
214.38	15.762
214.60	14.684
214.81	-19.711
215.03	21.862
215.24	15.488
215.45	13.270
215.67	-15.965
215.88	31.380
216.10	-4.286
216.31	1.617
216.53	-15.732
216.74	-2.808
216.95	10.587
217.17	18.414
217.38	-3.158
217.60	12.935
217.81	-4.227
218.03	1.790
218.24	-1.380
218.45	-1.077
218.67	2.149
218.88	10.105
219.10	-5.860
219.31	6.017
219.53	12.316
219.74	5.364
219.95	-6.635
220.17	8.204
220.38	16.915
220.60	8.144
220.81	6.336
221.02	13.103
221.24	-3.346
221.45	-0.279
221.67	6.189
221.88	-0.192
222.09	-4.563
222.31	3.803
222.52	4.751
222.74	7.022
222.95	-1.520
223.16	1.277
223.38	2.262
223.59	3.681
223.81	4.412
224.02	3.377
224.23	-2.898
224.45	0.333
224.66	5.126
224.87	8.594
225.09	2.351
225.30	5.397
225.52	3.149
225.73	4.999
225.94	1.548
226.16	2.004
226.37	2.404
226.59	2.111
226.80	2.598
227.01	1.987
227.23	2.136
227.44	3.148
227.65	2.093
227.87	3.977
228.08	2.205
228.30	2.782
228.51	2.830
228.72	2.185
228.94	1.667
229.15	1.988
229.36	1.786
229.58	2.329
229.79	0.722
230.00	2.118
230.22	1.590
230.43	1.754
230.65	2.086
230.86	1.541
231.07	0.174
231.29	3.612
231.50	2.539
231.71	0.535
231.93	2.838
232.14	0.091
232.35	0.517
232.57	3.215
232.78	2.580
232.99	2.720
233.21	3.502
233.42	2.627
233.63	1.708
233.85	3.769
234.06	1.220
234.27	1.897
234.49	1.334
234.70	3.499
234.91	-0.674
235.13	0.528
235.34	3.759
235.55	2.794
235.77	1.699
235.98	0.409
236.19	1.613
236.41	4.747
236.62	-1.302
236.83	3.438
237.05	3.358
237.26	1.977
237.47	1.487
237.69	5.259
237.90	2.679
238.11	0.958
238.33	2.339
238.54	1.966
238.75	2.128
238.97	2.449
239.18	0.846
239.39	1.076
239.61	1.289
239.82	1.275
240.03	1.543
240.24	2.785
240.46	2.850
240.67	1.617
240.88	2.220
241.10	1.986
241.31	2.648
241.52	2.313
241.74	1.550
241.95	2.135
242.16	1.102
242.37	2.017
242.59	1.318
242.80	1.429
243.01	0.827
243.23	-0.078
243.44	1.000
243.65	1.860
243.87	2.228
244.08	1.868
244.29	1.583
244.50	2.745
244.72	2.351
244.93	2.842
245.14	2.107
245.36	1.564
245.57	1.813
245.78	2.515
245.99	2.104
246.21	1.843
246.42	1.833
246.63	2.101
246.84	1.450
247.06	1.464
247.27	1.479
247.48	1.127
247.70	1.505
247.91	1.254
248.12	0.387
248.33	1.525
248.55	0.874
248.76	1.343
248.97	1.650
249.18	1.909
249.40	1.154
249.61	0.047
249.82	1.789
250.03	2.629
250.25	1.679
250.46	2.312
250.67	2.814
250.88	2.662
251.10	1.827
251.31	1.891
251.52	2.177
251.74	3.297
251.95	1.262
252.16	0.547
252.37	1.949
252.58	2.112
252.80	1.363
253.01	1.937
253.22	0.839
253.43	0.829
253.65	1.558
253.86	1.736
254.07	1.859
254.28	1.286
254.50	0.522
254.71	0.644
254.92	0.359
255.13	3.579
255.35	1.557
255.56	3.613
255.77	1.165
255.98	1.630
256.19	0.830
256.41	2.025
256.62	0.836
256.83	2.077
257.04	0.706
257.26	2.107
257.47	1.367
257.68	2.097
257.89	2.620
258.10	1.784
258.32	2.564
258.53	1.787
258.74	1.968
258.95	1.507
259.17	2.308
259.38	1.439
259.59	1.480
259.80	1.400
260.01	1.584
260.23	1.174
260.44	0.906
260.65	0.843
260.86	0.897
261.07	1.213
261.29	0.467
261.50	1.104
261.71	0.807
261.92	1.611
262.13	1.431
262.35	2.444
262.56	1.153
262.77	1.298
262.98	1.601
263.19	0.725
263.41	1.992
263.62	1.149
263.83	0.845
264.04	0.640
264.25	1.751
264.46	0.939
264.68	1.741
264.89	1.447
265.10	2.026
265.31	1.433
265.52	1.167
265.74	1.511
265.95	2.184
266.16	1.077
266.37	0.915
266.58	1.219
266.79	1.671
267.01	0.561
267.22	0.684
267.43	1.797
267.64	1.687
267.85	1.065
268.06	0.059
268.28	0.992
268.49	1.000
268.70	1.028
268.91	1.337
269.12	1.915
269.33	0.725
269.55	1.184
269.76	0.586
269.97	1.830
270.18	1.320
270.39	0.849
270.60	0.919
270.81	1.203
271.03	0.662
271.24	1.220
271.45	1.093
271.66	1.172
271.87	1.461
272.08	0.966
272.29	1.074
272.51	1.410
272.72	1.210
272.93	1.104
273.14	1.443
273.35	0.944
273.56	1.291
273.77	1.681
273.99	0.959
274.20	0.431
274.41	0.856
274.62	1.260
274.83	1.238
275.04	2.014
275.25	1.058
275.47	0.938
275.68	1.149
275.89	0.981
276.10	1.036
276.31	1.299
276.52	0.910
276.73	1.273
276.94	1.356
277.15	1.420
277.37	0.899
277.58	0.034
277.79	1.858
278.00	0.247
278.21	0.302
278.42	1.065
278.63	0.546
278.84	1.083
279.05	1.808
279.27	0.742
279.48	1.339
279.69	2.017
279.90	0.910
280.11	1.292
280.32	2.132
280.53	1.122
280.74	0.833
280.95	1.417
281.17	2.104
281.38	1.336
281.59	1.490
281.80	1.529
282.01	0.716
282.22	0.921
282.43	0.973
282.64	1.455
282.85	1.355
283.06	1.462
283.27	0.892
283.48	0.829
283.70	1.686
283.91	0.862
284.12	1.744
284.33	1.166
284.54	0.602
284.75	1.188
284.96	1.451
285.17	0.941
285.38	0.784
285.59	1.099
285.80	1.040
286.01	0.210
286.22	1.112
286.44	0.899
286.65	1.721
286.86	1.729
287.07	0.314
287.28	0.376
287.49	-0.066
287.70	1.434
287.91	0.818
288.12	1.404
288.33	0.911
288.54	1.014
288.75	1.224
288.96	0.614
289.17	0.921
289.38	0.928
289.59	0.699
289.81	1.358
290.02	1.220
290.23	1.122
290.44	0.996
290.65	1.751
290.86	1.432
291.07	0.684
291.28	1.211
291.49	1.288
291.70	0.614
291.91	1.365
292.12	1.119
292.33	1.780
292.54	1.014
292.75	1.625
292.96	1.547
293.17	0.616
293.38	0.783
293.59	1.629
293.80	2.084
294.01	1.193
294.22	1.201
294.43	1.662
294.64	1.236
294.85	1.458
295.06	1.865
295.27	0.868
295.48	1.272
295.69	1.790
295.91	0.855
296.12	1.259
296.33	1.184
296.54	1.291
296.75	1.754
296.96	1.169
297.17	1.267
297.38	1.186
297.59	0.885
297.80	1.152
298.01	1.209
298.22	1.706
298.43	1.651
298.64	1.026
298.85	0.783
299.06	1.342
299.27	1.299
299.48	1.702
299.69	0.906
299.90	1.107
300.11	1.770
300.32	0.872
300.53	0.763
300.74	1.777
300.95	1.367
301.16	0.948
301.37	1.543
301.58	1.178
301.79	0.981
302.00	1.821
302.21	1.530
302.42	0.871
302.63	1.088
302.84	1.612
303.04	1.566
303.25	0.829
303.46	1.947
303.67	1.551
303.88	1.252
304.09	2.191
304.30	1.025
304.51	1.440
304.72	1.457
304.93	1.255
305.14	1.411
305.35	1.499
305.56	1.405
305.77	1.155
305.98	0.553
306.19	1.610
306.40	1.904
306.61	1.422
306.82	1.455
307.03	1.775
307.24	1.680
307.45	1.215
307.66	2.091
307.87	1.815
308.08	1.975
308.29	1.584
308.50	1.904
308.71	1.366
308.91	1.373
309.12	1.800
309.33	1.212
309.54	1.427
309.75	1.362
309.96	1.228
310.17	0.824
310.38	0.942
310.59	1.263
310.80	1.515
311.01	1.162
311.22	1.837
311.43	1.057
311.64	1.498
311.85	1.528
312.06	1.196
312.27	1.249
312.47	1.868
312.68	1.402
312.89	0.966
313.10	1.529
313.31	1.442
313.52	1.154
313.73	1.063
313.94	1.443
314.15	1.379
314.36	1.002
314.57	1.763
314.78	1.377
314.99	1.441
315.19	1.933
315.40	1.363
315.61	1.041
315.82	1.660
316.03	1.613
316.24	1.729
316.45	1.460
316.66	1.850
316.87	1.818
317.08	2.333
317.29	1.873
317.49	1.436
317.70	1.103
317.91	0.754
318.12	1.502
318.33	1.582
318.54	2.191
318.75	1.518
318.96	2.063
319.17	1.014
319.38	1.446
319.58	1.824
319.79	1.005
320.00	1.208
320.21	1.655
320.42	1.095
320.63	1.521
320.84	2.108
321.05	1.047
321.26	1.766
321.46	1.488
321.67	1.552
321.88	1.741
322.09	0.582
322.30	0.377
322.51	1.498
322.72	2.043
322.93	1.044
323.13	1.319
323.34	0.868
323.55	1.075
323.76	1.885
323.97	0.923
324.18	0.914
324.39	0.468
324.60	1.286
324.80	1.235
325.01	0.469
325.22	0.915
325.43	1.153
325.64	0.625
325.85	1.177
326.06	1.166
326.26	1.359
326.47	1.306
326.68	0.957
326.89	1.335
327.10	0.971
327.31	1.237
327.52	1.214
327.72	1.241
327.93	1.291
328.14	0.923
328.35	1.616
328.56	1.352
328.77	1.827
328.97	1.056
329.18	0.760
329.39	1.203
329.60	0.989
329.81	1.515
330.02	1.254
330.22	0.650
330.43	0.872
330.64	0.992
330.85	0.816
331.06	1.079
331.27	1.454
331.47	1.000
331.68	0.966
331.89	1.315
332.10	0.828
332.31	1.266
332.52	1.112
332.72	1.039
332.93	0.760
333.14	0.568
333.35	0.815
333.56	1.212
333.76	1.012
333.97	0.765
334.18	1.497
334.39	0.933
334.60	1.455
334.81	2.208
335.01	1.129
335.22	1.078
335.43	1.502
335.64	0.620
335.85	1.152
336.05	1.815
336.26	1.371
336.47	1.308
336.68	0.999
336.89	1.231
337.09	1.074
337.30	1.153
337.51	0.917
337.72	1.759
337.93	0.798
338.13	1.297
338.34	0.659
338.55	0.380
338.76	1.241
338.96	0.696
339.17	0.810
339.38	0.087
339.59	0.528
339.80	0.457
340.00	0.530
340.21	0.481
340.42	0.548
340.63	1.013
340.84	0.631
341.04	0.566
341.25	0.760
341.46	0.793
341.67	0.794
341.87	0.980
342.08	1.021
342.29	1.514
342.50	0.480
342.70	1.488
342.91	0.562
343.12	0.913
343.33	0.352
343.54	0.929
343.74	0.683
343.95	0.598
344.16	0.934
344.37	0.123
344.57	0.112
344.78	0.160
344.99	0.648
345.20	0.434
345.40	0.596
345.61	0.698
345.82	0.631
346.03	0.837
346.23	0.874
346.44	1.025
346.65	0.291
346.86	0.851
347.06	1.151
347.27	-0.171
347.48	0.367
347.69	0.374
347.89	-0.152
348.10	0.668
348.31	0.208
348.51	0.706
348.72	0.529
348.93	0.843
349.14	0.486
349.34	1.090
349.55	0.264
349.76	0.958
349.97	0.238
350.17	0.449
350.38	0.610
350.59	0.514
350.79	0.252
351.00	0.829
351.21	0.715
351.42	0.355
351.62	0.248
351.83	0.732
352.04	0.491
352.25	0.897
352.45	0.439
352.66	0.540
352.87	0.656
353.07	0.398
353.28	0.645
353.49	0.714
353.69	0.320
353.90	-0.094
354.11	0.411
354.32	0.236
354.52	0.232
354.73	-0.055
354.94	1.224
355.14	0.606
355.35	0.100
355.56	0.640
355.76	0.455
355.97	0.395
356.18	0.477
356.39	0.478
356.59	0.387
356.80	0.052
357.01	0.362
357.21	0.334
357.42	0.116
357.63	-0.154
357.83	-0.135
358.04	-0.054
358.25	0.450
358.45	0.350
358.66	0.233
358.87	0.244
359.07	0.635
359.28	0.311
359.49	0.152
359.69	-0.000
359.90	0.364
360.11	0.416
360.31	0.016
360.52	0.068
360.73	0.334
360.93	0.197
361.14	-0.239
361.35	-0.037
361.55	-0.348
361.76	0.029
361.97	-0.239
362.17	0.147
362.38	-0.105
362.59	0.172
362.79	0.217
363.00	0.478
363.21	0.000
363.41	0.052
363.62	0.028
363.83	0.777
364.03	-0.516
364.24	-0.236
364.45	0.003
364.65	-0.187
364.86	0.530
365.07	-0.130
365.27	0.026
365.48	0.596
365.68	-0.070
365.89	0.387
366.10	-0.366
366.30	0.265
366.51	0.030
366.72	-0.122
366.92	0.424
367.13	0.177
367.34	-0.163
367.54	0.488
367.75	0.404
367.95	-0.030
368.16	0.457
368.37	-0.221
368.57	0.412
368.78	0.114
368.99	0.031
369.19	0.621
369.40	0.607
369.60	0.515
369.81	0.612
370.02	0.275
370.22	0.526
370.43	0.201
370.64	-0.077
370.84	0.093
371.05	0.442
371.25	-0.284
371.46	0.030
371.67	0.116
371.87	0.390
372.08	-0.168
372.28	0.132
372.49	0.350
372.70	0.347
372.90	-0.163
373.11	0.241
373.31	0.375
373.52	0.220
373.73	0.328
373.93	0.291
374.14	0.195
374.34	0.180
374.55	0.235
374.76	0.433
374.96	-0.235
375.17	0.055
375.37	0.338
375.58	0.016
375.78	-0.079
375.99	0.475
376.20	0.200
376.40	0.105
376.61	0.153
376.81	0.821
377.02	0.002
377.23	-0.428
377.43	0.079
377.64	0.048
377.84	0.065
378.05	0.017
378.25	-0.121
378.46	0.236
378.66	-0.035
378.87	0.304
379.08	-0.098
379.28	0.357
379.49	0.099
379.69	0.232
379.90	0.168
380.10	0.040
380.31	0.226
380.52	-0.048
380.72	0.241
380.93	-0.101
381.13	0.255
381.34	-0.056
381.54	0.301
381.75	0.322
381.95	0.329
382.16	0.162
382.37	0.043
382.57	0.148
382.78	0.119
382.98	0.218
383.19	0.243
383.39	0.106
383.60	0.115
383.80	-0.040
384.01	-0.157
384.21	0.357
384.42	0.113
384.62	-0.101
384.83	0.159
385.04	0.455
385.24	-0.120
385.45	0.204
385.65	0.136
385.86	0.097
386.06	-0.072
386.27	0.068
386.47	0.160
386.68	0.407
386.88	-0.107
387.09	0.312
387.29	0.092
387.50	-0.092
387.70	0.185
387.91	0.463
388.11	0.465
388.32	0.455
388.52	-0.212
388.73	0.117
388.93	0.161
389.14	0.305
389.34	0.154
389.55	0.448
389.75	0.240
389.96	0.434
390.16	-0.057
390.37	0.308
390.57	0.419
390.78	0.176
390.98	0.462
391.19	0.187
391.39	0.510
391.60	0.046
391.80	0.040
392.01	-0.175
392.21	0.385
392.42	0.224
392.62	0.259
392.83	0.066
393.03	-0.006
393.24	0.400
393.44	0.305
393.65	0.425
393.85	0.242
394.06	0.119
394.26	0.157
394.47	-0.065
394.67	0.162
394.88	0.102
395.08	0.453
395.29	0.010
395.49	0.229
395.70	0.367
395.90	0.348
396.10	0.173
396.31	0.356
396.51	0.281
396.72	0.385
396.92	-0.082
397.13	0.347
397.33	-0.048
397.54	0.392
397.74	0.338
397.95	0.509
398.15	0.264
398.36	0.205
398.56	0.436
398.76	0.301
398.97	0.357
399.17	0.091
399.38	0.029
399.58	0.284
399.79	0.083
399.99	0.223
400.20	0.259
400.40	0.034
400.61	0.447
400.81	0.336
401.01	0.730
401.22	0.379
401.42	0.233
401.63	0.273
401.83	0.292
402.04	0.449
402.24	-0.039
402.44	0.307
402.65	0.463
402.85	0.239
403.06	-0.008
403.26	-0.236
403.47	-0.246
403.67	0.171
403.87	-0.014
404.08	-0.011
404.28	0.049
404.49	-0.055
404.69	0.228
404.90	0.347
405.10	0.344
405.30	0.233
405.51	0.098
405.71	-0.151
405.92	0.044
406.12	0.172
406.32	0.565
406.53	0.090
406.73	0.038
406.94	0.025
407.14	0.292
407.34	0.046
407.55	-0.277
407.75	0.028
407.96	0.221
408.16	0.387
408.37	-0.096
408.57	0.516
408.77	0.386
408.98	-0.049
409.18	-0.096
409.38	0.011
409.59	-0.097
409.79	0.292
410.00	0.344
410.20	0.017
410.40	0.143
410.61	0.205
410.81	0.241
411.02	0.293
411.22	-0.158
411.42	0.172
411.63	-0.104
411.83	0.163
412.03	0.471
412.24	-0.117
412.44	0.300
412.65	0.423
412.85	0.162
413.05	-0.157
413.26	0.285
413.46	-0.058
413.66	0.133
413.87	0.063
414.07	-0.145
414.28	0.054
414.48	0.036
414.68	0.137
414.89	0.319
415.09	0.163
415.29	0.074
415.50	0.139
415.70	0.013
415.90	-0.149
416.11	0.113
416.31	0.007
416.52	-0.104
416.72	0.124
416.92	0.213
417.13	-0.157
417.33	0.005
417.53	0.108
417.74	-0.026
417.94	0.027
418.14	0.118
418.35	0.067
418.55	0.112
418.75	0.021
418.96	0.195
419.16	0.068
419.36	0.093
419.57	-0.113
419.77	-0.036
419.97	0.238
420.18	-0.012
420.38	0.098
420.58	0.066
420.79	0.098
420.99	-0.021
421.19	0.118
421.40	0.027
421.60	0.214
421.80	0.061
422.01	0.060
422.21	0.182
422.41	0.191
422.62	-0.017
422.82	0.179
423.02	0.190
423.22	0.073
423.43	0.181
423.63	0.217
423.83	0.025
424.04	0.168
424.24	0.206
424.44	0.173
424.65	0.143
424.85	0.218
425.05	0.304
425.26	0.191
425.46	0.125
425.66	0.266
425.86	0.378
426.07	0.259
426.27	0.287
426.47	0.143
426.68	0.445
426.88	0.328
427.08	0.292
427.28	0.175
427.49	0.199
427.69	0.413
427.89	0.143
428.10	0.411
428.30	0.355
428.50	0.209
428.70	0.337
428.91	0.182
429.11	0.387
429.31	0.557
429.52	0.450
429.72	0.377
429.92	0.279
430.12	0.637
430.33	0.364
430.53	0.594
430.73	0.451
430.93	0.364
431.14	0.324
431.34	0.088
431.54	0.453
431.75	0.394
431.95	0.275
432.15	0.324
432.35	0.331
432.56	0.320
432.76	0.177
432.96	0.498
433.16	0.300
433.37	0.471
433.57	0.300
433.77	0.584
433.97	0.406
434.18	0.483
434.38	0.372
434.58	0.300
434.78	0.475
434.99	0.358
435.19	0.560
435.39	0.457
435.59	0.435
435.80	0.508
436.00	0.381
436.20	0.443
436.40	0.569
436.61	0.699
436.81	0.687
437.01	0.513
437.21	0.382
437.41	0.418
437.62	0.660
437.82	0.452
438.02	0.337
438.22	0.274
438.43	0.491
438.63	0.612
438.83	0.671
439.03	0.589
439.23	0.571
439.44	0.649
439.64	0.468
439.84	0.612
440.04	0.668
440.25	0.722
440.45	0.644
440.65	0.724
440.85	0.629
441.05	0.609
441.26	0.806
441.46	0.558
441.66	0.867
441.86	0.670
442.06	0.765
442.27	0.696
442.47	0.689
442.67	0.645
442.87	0.852
443.07	0.709
443.28	0.753
443.48	1.003
443.68	0.636
443.88	0.734
444.08	0.820
444.29	0.618
444.49	0.776
444.69	0.724
444.89	0.872
445.09	0.876
445.30	0.713
445.50	0.922
445.70	0.992
445.90	0.806
446.10	0.851
446.30	0.803
446.51	0.914
446.71	0.904
446.91	0.921
447.11	1.111
447.31	1.074
447.51	1.026
447.72	1.111
447.92	1.090
448.12	1.038
448.32	0.859
448.52	1.298
448.72	0.986
448.93	1.173
449.13	1.315
449.33	1.102
449.53	1.236
449.73	1.007
449.93	1.152
450.14	1.326
450.34	1.335
450.54	0.979
450.74	1.176
450.94	1.412
451.14	1.347
451.35	1.226
451.55	1.295
451.75	1.305
451.95	1.257
452.15	1.309
452.35	1.391
452.55	1.536
452.76	1.361
452.96	1.311
453.16	1.502
453.36	1.595
453.56	1.292
453.76	1.548
453.96	1.556
454.16	1.587
454.37	1.348
454.57	1.499
454.77	1.560
454.97	1.636
455.17	1.591
455.37	1.663
455.57	1.617
455.77	1.613
455.98	1.808
456.18	1.601
456.38	1.785
456.58	1.492
456.78	1.879
456.98	1.690
457.18	1.953
457.38	1.786
457.59	1.732
457.79	1.878
457.99	1.719
458.19	1.753
458.39	1.818
458.59	1.694
458.79	1.743
458.99	1.890
459.19	1.985
459.39	1.852
459.60	2.006
459.80	1.896
460.00	1.907
460.20	1.938
460.40	1.898
460.60	2.016
460.80	2.148
461.00	2.128
461.20	2.258
461.40	2.125
461.61	2.150
461.81	2.291
462.01	2.279
462.21	2.252
462.41	2.469
